 0102    Rigaku R-XAS Looper
Ba                23/11/2023 09:53 -
Comment    :  exafstest
Sample     :  test
Operator   :  exafs
core       :  Cu
edge       :  K
XG         :  15 kV    30 mA
Filament   :  LaB6
Target     :  Mo
Io Counter :  Ar-300
I Counter  :  SC
Attachment :  None
0
0
0
Crystal    :  Ge(220)   2d = 4.00081
Monochro   :  omega -0.207    tilt 0.052     z 0.3
Slits      :  DS =  4.00 mm     RS =  2.00 mm     HS = 10 mm
RX-78         Transmission        Repetition = 1
 
Block        Energy        Step/eV       Time/s
    1          5180          10.00            1
    2          5240           1.00            3
    3          5255          10.00            1
    4          5540           1.00            3
    5          5555          10.00            1
    6          5700           1.00            1
 
 Energy(eV)    Angle      time/s       Io          I
   5180.03    73.4871       1.00     7275.0     5224.0    0.33118
   5190.06    73.3219       1.00     7501.0     5223.0    0.36196
   5200.06    73.1579       1.00     7781.0     5362.0    0.37235
   5210.04    72.9952       1.00     7636.0     5183.0    0.38749
   5220.05    72.8327       1.00     7878.0     5303.0    0.39580
   5230.03    72.6715       1.00     8018.0     5239.0    0.42556
   5240.04    72.5104       3.00    25012.0    15316.0    0.49046
   5241.01    72.4949       3.00    25228.0    15409.0    0.49300
   5242.05    72.4782       3.00    25013.0    15072.0    0.50656
   5243.02    72.4627       3.00    25424.0    15246.0    0.51138
   5244.06    72.4460       3.00    25119.0    14900.0    0.52226
   5245.03    72.4305       3.00    25007.0    14654.0    0.53444
   5246.00    72.4150       3.00    25329.0    14409.0    0.56410
   5247.05    72.3983       3.00    25481.0    14073.0    0.59368
   5248.02    72.3828       3.00    25186.0    13660.0    0.61182
   5249.06    72.3662       3.00    25585.0    13504.0    0.63902
   5250.03    72.3506       3.00    25684.0    13729.0    0.62636
   5251.01    72.3351       3.00    25715.0    13824.0    0.62067
   5252.05    72.3185       3.00    25577.0    13762.0    0.61978
   5253.02    72.3029       3.00    25581.0    14157.0    0.59164
   5254.07    72.2863       3.00    25899.0    14169.0    0.60315
   5255.04    72.2708       1.00     8536.0     4708.0    0.59503
   5265.01    72.1124       1.00     8952.0     4763.0    0.63100
   5275.03    71.9541       1.00     9134.0     4578.0    0.69074
   5285.01    71.7971       1.00     9390.0     4716.0    0.68868
   5295.03    71.6402       1.00     9299.0     4543.0    0.71632
   5305.01    71.4846       1.00     9616.0     4723.0    0.71098
   5315.03    71.3292       1.00     9791.0     4702.0    0.73348
   5325.02    71.1750       1.00    10222.0     4585.0    0.80175
   5335.05    71.0209       1.00    10352.0     4457.0    0.84270
   5345.04    70.8681       1.00    10618.0     4549.0    0.84764
   5355.00    70.7166       1.00    10773.0     4393.0    0.89703
   5365.00    70.5652       1.00    11128.0     4444.0    0.91791
   5375.03    70.4139       1.00    11183.0     4371.0    0.93940
   5385.03    70.2639       1.00    11406.0     4339.0    0.96650
   5395.06    70.1140       1.00    11963.0     4360.0    1.00935
   5405.06    69.9653       1.00    12116.0     4283.0    1.03987
   5415.02    69.8178       1.00    12624.0     4256.0    1.08727
   5425.02    69.6705       1.00    12675.0     4299.0    1.08125
   5435.05    69.5233       1.00    13039.0     4252.0    1.12056
   5445.05    69.3774       1.00    12972.0     4301.0    1.10395
   5455.01    69.2326       1.00    13489.0     4120.0    1.18602
   5465.01    69.0880       1.00    13749.0     4091.0    1.21218
   5475.04    68.9435       1.00    14030.0     4179.0    1.21113
   5485.03    68.8003       1.00    14208.0     4147.0    1.23142
   5495.06    68.6571       1.00    14489.0     4012.0    1.28410
   5505.05    68.5151       1.00    15057.0     3902.0    1.35035
   5515.00    68.3744       1.00    15012.0     3959.0    1.33286
   5525.07    68.2327       1.00    15424.0     3874.0    1.38164
   5535.01    68.0932       1.00    15880.0     3814.0    1.42638
   5540.04    68.0230       3.00    47472.0    10915.0    1.47000
   5541.04    68.0090       3.00    47227.0    11026.0    1.45471
   5542.05    67.9949       3.00    47698.0    10810.0    1.48442
   5543.06    67.9809       3.00    47881.0    10798.0    1.48936
   5544.07    67.9669       3.00    48012.0    10612.0    1.50947
   5545.07    67.9528       3.00    47983.0    10286.0    1.54006
   5546.00    67.9399       3.00    48198.0    10037.0    1.56904
   5547.01    67.9259       3.00    48133.0     9513.0    1.62131
   5548.02    67.9118       3.00    47889.0     9402.0    1.62796
   5549.03    67.8978       3.00    48127.0     8937.0    1.68364
   5550.04    67.8838       3.00    47642.0     8392.0    1.73644
   5551.05    67.8697       3.00    48035.0     7610.0    1.84247
   5552.06    67.8557       3.00    47847.0     7365.0    1.87127
   5553.07    67.8417       3.00    47844.0     7031.0    1.91762
   5554.00    67.8287       3.00    47713.0     7049.0    1.91232
   5555.01    67.8147       1.00    15982.0     2373.0    1.90731
   5565.07    67.6756       1.00    16165.0     2560.0    1.84284
   5575.00    67.5388       1.00    16705.0     2523.0    1.89026
   5585.05    67.4010       1.00    17146.0     2636.0    1.87250
   5595.05    67.2644       1.00    17446.0     2892.0    1.79716
   5605.01    67.1290       1.00    17555.0     2825.0    1.82683
   5615.01    66.9936       1.00    18315.0     2754.0    1.89467
   5625.05    66.8584       1.00    18116.0     2003.0    2.20215
   5635.03    66.7244       1.00    18899.0     2618.0    1.97670
   5645.06    66.5905       1.00    19262.0     2657.0    1.98094
   5655.04    66.4577       1.00    19951.0     2548.0    2.05797
   5665.05    66.3250       1.00    19733.0     2683.0    1.99536
   5675.02    66.1935       1.00    20478.0     2846.0    1.97344
   5685.03    66.0622       1.00    20593.0     2793.0    1.99783
   5695.07    65.9309       1.00    21126.0     2838.0    2.00740
