 0102    Rigaku R-XAS Looper
Ce-barrido                23/11/2023 10:03 -
Comment    :  exafstest
Sample     :  test
Operator   :  exafs
core       :  Cu
edge       :  K
XG         :  15 kV    30 mA
Filament   :  LaB6
Target     :  Mo
Io Counter :  Ar-300
I Counter  :  SC
Attachment :  None
0
0
0
Crystal    :  Ge(220)   2d = 4.00081
Monochro   :  omega -0.207    tilt 0.052     z 0.3
Slits      :  DS =  4.00 mm     RS =  2.00 mm     HS = 10 mm
RX-78         Transmission        Repetition = 1
 
Block        Energy        Step/eV       Time/s
    1          5650          10.00            1
    2          6200           1.00            3
 
 Energy(eV)    Angle      time/s       Io          I
   5650.04    66.5241       1.00    19533.0     5144.0    1.33427
   5660.04    66.3914       1.00    19817.0     5550.0    1.27274
   5670.07    66.2587       1.00    19896.0     5578.0    1.27169
   5680.06    66.1273       1.00    20558.0     5763.0    1.27179
   5690.00    65.9970       1.00    20998.0     5854.0    1.27730
   5700.06    65.8658       1.00    21197.0     6061.0    1.25198
   5710.07    65.7357       1.00    21567.0     6065.0    1.26863
   5720.03    65.6068       1.00    22159.0     5632.0    1.36978
   5730.03    65.4779       1.00    22475.0     2974.0    2.02250
   5740.06    65.3492       1.00    22950.0     3430.0    1.90076
   5750.05    65.2216       1.00    23117.0     4441.0    1.64969
   5760.07    65.0941       1.00    23816.0     4434.0    1.68106
   5770.04    64.9678       1.00    24153.0     4201.0    1.74909
   5780.05    64.8416       1.00    24445.0     4565.0    1.67801
   5790.00    64.7164       1.00    24870.0     4727.0    1.66037
   5800.08    64.5904       1.00    25376.0     4829.0    1.65916
   5810.02    64.4665       1.00    25579.0     5047.0    1.62298
   5820.08    64.3417       1.00    26224.0     4937.0    1.66992
   5830.00    64.2190       1.00    26431.0     5157.0    1.63418
   5840.04    64.0954       1.00    26994.0     5215.0    1.64408
   5850.03    63.9729       1.00    27261.0     5264.0    1.64457
   5860.06    63.8505       1.00    27867.0     5429.0    1.63569
   5870.03    63.7293       1.00    28100.0     5739.0    1.58848
   5880.04    63.6081       1.00    28723.0     5815.0    1.59726
   5890.08    63.4870       1.00    28886.0     5946.0    1.58064
   5900.07    63.3670       1.00    29551.0     5990.0    1.59603
   5910.00    63.2482       1.00    29944.0     6186.0    1.57704
   5920.06    63.1283       1.00    30412.0     6246.0    1.58290
   5930.06    63.0097       1.00    30757.0     6483.0    1.55693
   5940.00    62.8921       1.00    31012.0     6659.0    1.53840
   5950.07    62.7735       1.00    31896.0     6859.0    1.53692
   5960.00    62.6572       1.00    31972.0     7103.0    1.50434
   5970.04    62.5398       1.00    32469.0     7266.0    1.49708
   5980.03    62.4236       1.00    32899.0     7339.0    1.50024
   5990.06    62.3075       1.00    33549.0     7673.0    1.47530
   6000.03    62.1924       1.00    34073.0     7590.0    1.50167
   6010.03    62.0774       1.00    34274.0     7972.0    1.45845
   6020.06    61.9625       1.00    34651.0     8198.0    1.44144
   6030.03    61.8488       1.00    35158.0     8411.0    1.43031
   6040.04    61.7350       1.00    35960.0     8769.0    1.41118
   6050.09    61.6214       1.00    36062.0     8753.0    1.41584
   6060.07    61.5089       1.00    36584.0     9080.0    1.39354
   6070.08    61.3964       1.00    36877.0     9532.0    1.35293
   6080.04    61.2850       1.00    37516.0     9458.0    1.37791
   6090.03    61.1737       1.00    38131.0     9726.0    1.36622
   6100.05    61.0625       1.00    38166.0    10161.0    1.32339
   6110.01    60.9523       1.00    38963.0    10437.0    1.31726
   6120.00    60.8422       1.00    38898.0    10606.0    1.29952
   6130.03    60.7322       1.00    39587.0    10799.0    1.29905
   6140.09    60.6223       1.00    40261.0    11193.0    1.28009
   6150.08    60.5134       1.00    40365.0    11222.0    1.28009
   6160.01    60.4057       1.00    41316.0    10834.0    1.33856
   6170.08    60.2969       1.00    41438.0     7562.0    1.70106
   6180.07    60.1893       1.00    42126.0     8639.0    1.58438
   6190.01    60.0827       1.00    42284.0     9783.0    1.46376
