 0102    Rigaku R-XAS Looper
Eu-barrido                23/11/2023 10:54 -
Comment    :  exafstest
Sample     :  test
Operator   :  exafs
core       :  Cu
edge       :  K
XG         :  15 kV    30 mA
Filament   :  LaB6
Target     :  Mo
Io Counter :  Ar-300
I Counter  :  SC
Attachment :  None
0
0
0
Crystal    :  Ge(220)   2d = 4.00081
Monochro   :  omega -0.207    tilt 0.052     z 0.3
Slits      :  DS =  4.00 mm     RS =  2.00 mm     HS = 10 mm
RX-78         Transmission        Repetition = 1
 
Block        Energy        Step/eV       Time/s
    1          6900          10.00            1
    2          7700           1.00            2
 
 Energy(eV)    Angle      time/s       Io          I
   6900.04    53.3731       1.00    73910.0    56842.0    0.26257
   6910.02    53.2900       1.00    74349.0    57836.0    0.25116
   6920.02    53.2069       1.00    75199.0    58457.0    0.25185
   6930.06    53.1238       1.00    75287.0    59187.0    0.24061
   6940.00    53.0417       1.00    75277.0    60092.0    0.22530
   6950.09    52.9587       1.00    75823.0    60476.0    0.22616
   6960.09    52.8767       1.00    75910.0    59306.0    0.24684
   6970.00    52.7957       1.00    76442.0    47281.0    0.48042
   6980.06    52.7138       1.00    77048.0    23173.0    1.20144
   6990.02    52.6329       1.00    77581.0    37404.0    0.72954
   7000.01    52.5520       1.00    78130.0    37777.0    0.72667
   7010.03    52.4711       1.00    78346.0    34818.0    0.81100
   7020.08    52.3903       1.00    79089.0    36091.0    0.78453
   7030.04    52.3105       1.00    78810.0    38927.0    0.70535
   7040.02    52.2307       1.00    79535.0    39314.0    0.70462
   7050.03    52.1510       1.00    80398.0    39283.0    0.71620
   7060.07    52.0712       1.00    80387.0    38585.0    0.73399
   7070.01    51.9925       1.00    80187.0    39263.0    0.71408
   7080.10    51.9129       1.00    80504.0    40087.0    0.69725
   7090.10    51.8342       1.00    80836.0    40542.0    0.69008
   7100.00    51.7566       1.00    81083.0    41220.0    0.67655
   7110.05    51.6780       1.00    81523.0    41360.0    0.67857
   7120.01    51.6004       1.00    81418.0    40830.0    0.69018
   7130.12    51.5219       1.00    81361.0    40050.0    0.70877
   7140.00    51.4454       1.00    81308.0    41159.0    0.68080
   7150.04    51.3679       1.00    81576.0    41737.0    0.67015
   7160.11    51.2904       1.00    82515.0    42514.0    0.66315
   7170.07    51.2139       1.00    82375.0    42872.0    0.65306
   7180.07    51.1375       1.00    83132.0    43611.0    0.64512
   7190.09    51.0611       1.00    83139.0    43507.0    0.64759
   7200.01    50.9857       1.00    84178.0    44521.0    0.63697
   7210.09    50.9094       1.00    83562.0    45145.0    0.61571
   7220.06    50.8340       1.00    84493.0    45481.0    0.61937
   7230.06    50.7587       1.00    84782.0    45780.0    0.61624
   7240.09    50.6834       1.00    84829.0    46509.0    0.60099
   7250.02    50.6091       1.00    85170.0    47206.0    0.59013
   7260.10    50.5339       1.00    85333.0    48133.0    0.57259
   7270.08    50.4596       1.00    85613.0    48153.0    0.57545
   7280.09    50.3854       1.00    86254.0    48667.0    0.57230
   7290.12    50.3112       1.00    86557.0    49019.0    0.56860
   7300.05    50.2380       1.00    86485.0    49548.0    0.55703
   7310.01    50.1649       1.00    86870.0    50510.0    0.54224
   7320.13    50.0908       1.00    86610.0    50823.0    0.53307
   7330.00    50.0186       1.00    87878.0    51804.0    0.52848
   7340.04    49.9456       1.00    88129.0    52094.0    0.52575
   7350.10    49.8725       1.00    88425.0    52991.0    0.51203
   7360.06    49.8004       1.00    89505.0    53867.0    0.50778
   7370.04    49.7284       1.00    90678.0    54848.0    0.50275
   7380.05    49.6564       1.00    92117.0    56459.0    0.48954
   7390.09    49.5844       1.00    91441.0    56834.0    0.47556
   7400.02    49.5134       1.00    90318.0    56178.0    0.47481
   7410.11    49.4414       1.00    90378.0    56616.0    0.46771
   7420.09    49.3705       1.00    90253.0    57868.0    0.44445
   7430.10    49.2995       1.00    90527.0    57495.0    0.45395
   7440.13    49.2286       1.00    91207.0    58445.0    0.44505
   7450.05    49.1587       1.00    92594.0    60040.0    0.43321
   7460.00    49.0888       1.00    92699.0    60727.0    0.42297
   7470.12    49.0180       1.00    94286.0    62430.0    0.41229
   7480.12    48.9481       1.00    92379.0    61319.0    0.40981
   7490.00    48.8793       1.00    92218.0    61347.0    0.40761
   7500.06    48.8095       1.00    92906.0    61887.0    0.40628
   7510.00    48.7407       1.00    92984.0    62807.0    0.39236
   7520.11    48.6709       1.00    92780.0    63204.0    0.38386
   7530.10    48.6021       1.00    92721.0    64201.0    0.36758
   7540.12    48.5334       1.00    92952.0    64786.0    0.36099
   7550.03    48.4656       1.00    93152.0    65235.0    0.35624
   7560.10    48.3969       1.00    93733.0    66152.0    0.34850
   7570.05    48.3292       1.00    94064.0    66246.0    0.35060
   7580.04    48.2615       1.00    94260.0    67252.0    0.33761
   7590.04    48.1938       1.00    94059.0    67418.0    0.33301
   7600.08    48.1262       1.00    94473.0    66342.0    0.35349
   7609.99    48.0595       1.00    94954.0    52189.0    0.59852
   7620.08    47.9919       1.00    94470.0    47155.0    0.69484
   7630.05    47.9253       1.00    94795.0    55877.0    0.52856
   7640.04    47.8586       1.00    95344.0    55282.0    0.54504
   7650.06    47.7921       1.00    95344.0    54204.0    0.56474
   7660.11    47.7255       1.00    95857.0    55573.0    0.54516
   7670.03    47.6599       1.00    96172.0    57028.0    0.52260
   7680.13    47.5934       1.00    96244.0    57333.0    0.51801
   7690.11    47.5278       1.00    96739.0    56853.0    0.53155
