 0102    Rigaku R-XAS Looper
Eu                23/11/2023 11:01 -
Comment    :  exafstest
Sample     :  test
Operator   :  exafs
core       :  Cu
edge       :  K
XG         :  15 kV    30 mA
Filament   :  LaB6
Target     :  Mo
Io Counter :  Ar-300
I Counter  :  SC
Attachment :  None
0
0
0
Crystal    :  Ge(220)   2d = 4.00081
Monochro   :  omega -0.207    tilt 0.052     z 0.3
Slits      :  DS =  4.00 mm     RS =  2.00 mm     HS = 10 mm
RX-78         Transmission        Repetition = 1
 
Block        Energy        Step/eV       Time/s
    1          6900          10.00            1
    2          6950           1.00            2
    3          6985          20.00            2
    4          7590           1.00            2
    5          7625          20.00            1
    6          7700           1.00            1
 
 Energy(eV)    Angle      time/s       Io          I
   6900.04    53.3731       1.00    74008.0    57494.0    0.25249
   6910.02    53.2900       1.00    74170.0    58077.0    0.24459
   6920.02    53.2069       1.00    74717.0    58559.0    0.24367
   6930.06    53.1238       1.00    75387.0    59425.0    0.23792
   6940.00    53.0417       1.00    75579.0    60178.0    0.22787
   6950.09    52.9587       2.00   151650.0   119961.0    0.23441
   6951.07    52.9507       2.00   151262.0   119734.0    0.23374
   6952.04    52.9427       2.00   151745.0   120599.0    0.22973
   6953.02    52.9347       2.00   152469.0   120392.0    0.23621
   6954.11    52.9257       2.00   151758.0   120483.0    0.23078
   6955.09    52.9177       2.00   151357.0   119801.0    0.23381
   6956.06    52.9097       2.00   151757.0   120355.0    0.23183
   6957.04    52.9017       2.00   152365.0   120143.0    0.23760
   6958.02    52.8937       2.00   151836.0   119956.0    0.23568
   6959.12    52.8847       2.00   151367.0   119257.0    0.23843
   6960.09    52.8767       2.00   152001.0   118883.0    0.24575
   6961.07    52.8687       2.00   152195.0   117979.0    0.25466
   6962.05    52.8607       2.00   152517.0   117181.0    0.26356
   6963.02    52.8527       2.00   152377.0   116000.0    0.27277
   6964.00    52.8447       2.00   152080.0   114843.0    0.28084
   6965.10    52.8357       2.00   152594.0   113060.0    0.29986
   6966.08    52.8277       2.00   153024.0   111167.0    0.31956
   6967.06    52.8197       2.00   152982.0   108494.0    0.34363
   6968.04    52.8117       2.00   153599.0   103962.0    0.39032
   6969.02    52.8037       2.00   152731.0   100274.0    0.42077
   6970.00    52.7957       2.00   152858.0    95232.0    0.47319
   6971.10    52.7867       2.00   153240.0    87405.0    0.56145
   6972.08    52.7787       2.00   153162.0    79854.0    0.65130
   6973.06    52.7707       2.00   152983.0    72203.0    0.75085
   6974.04    52.7627       2.00   153541.0    65008.0    0.85946
   6975.02    52.7547       2.00   152765.0    57820.0    0.97157
   6976.01    52.7467       2.00   153178.0    52433.0    1.07206
   6977.11    52.7377       2.00   153517.0    48454.0    1.15320
   6978.09    52.7298       2.00   152855.0    46108.0    1.19850
   6979.07    52.7218       2.00   153539.0    45522.0    1.21576
   6980.06    52.7138       2.00   153930.0    47094.0    1.18435
   6981.04    52.7058       2.00   154004.0    49271.0    1.13964
   6982.02    52.6978       2.00   154506.0    52693.0    1.07575
   6983.01    52.6898       2.00   153764.0    56410.0    1.00277
   6984.11    52.6808       2.00   154680.0    60992.0    0.93062
   6985.10    52.6728       2.00   154845.0    64010.0    0.88339
   7005.08    52.5110       2.00   155950.0    72049.0    0.77219
   7025.05    52.3504       2.00   158213.0    75880.0    0.73479
   7045.02    52.1908       2.00   159871.0    78096.0    0.71643
   7065.10    52.0314       2.00   161111.0    77250.0    0.73505
   7085.03    51.8740       2.00   162533.0    80947.0    0.69709
   7105.09    51.7168       2.00   163001.0    83001.0    0.67490
   7125.00    51.5617       2.00   162105.0    80808.0    0.69617
   7145.02    51.4066       2.00   163468.0    83570.0    0.67093
   7165.02    51.2527       2.00   164979.0    84955.0    0.66370
   7185.01    51.0998       2.00   165969.0    87350.0    0.64188
   7205.11    50.9470       2.00   167440.0    89470.0    0.62672
   7225.06    50.7963       2.00   168312.0    91577.0    0.60864
   7245.12    50.6458       2.00   169673.0    93693.0    0.59385
   7265.02    50.4972       2.00   170637.0    95730.0    0.57801
   7285.04    50.3488       2.00   172932.0    98658.0    0.56124
   7305.03    50.2015       2.00   172082.0   100217.0    0.54063
   7325.13    50.0542       2.00   174640.0   102901.0    0.52896
   7345.07    49.9090       2.00   176308.0   105972.0    0.50906
   7365.12    49.7639       2.00   179400.0   108613.0    0.50183
   7385.00    49.6209       2.00   183732.0   113460.0    0.48203
   7405.13    49.4769       2.00   180911.0   113047.0    0.47020
   7425.09    49.3350       2.00   181460.0   115352.0    0.45305
   7445.02    49.1942       2.00   183262.0   117808.0    0.44186
   7465.05    49.0534       2.00   186454.0   122453.0    0.42046
   7485.06    48.9137       2.00   184205.0   122615.0    0.40700
   7505.03    48.7751       2.00   185705.0   124529.0    0.39962
   7525.10    48.6365       2.00   185939.0   126737.0    0.38330
   7545.00    48.5000       2.00   187576.0   129883.0    0.36755
   7565.00    48.3636       2.00   187677.0   132000.0    0.35192
   7585.11    48.2272       2.00   189559.0   133988.0    0.34695
   7590.04    48.1938       2.00   188952.0   134720.0    0.33829
   7591.06    48.1870       2.00   189039.0   134519.0    0.34025
   7592.08    48.1801       2.00   189090.0   135095.0    0.33624
   7593.09    48.1732       2.00   189402.0   135228.0    0.33691
   7594.11    48.1664       2.00   188711.0   135383.0    0.33211
   7595.13    48.1595       2.00   189148.0   134615.0    0.34011
   7596.00    48.1536       2.00   189028.0   135039.0    0.33633
   7597.02    48.1468       2.00   188786.0   134664.0    0.33783
   7598.04    48.1399       2.00   189228.0   133989.0    0.34519
   7599.06    48.1330       2.00   189337.0   133610.0    0.34860
   7600.08    48.1262       2.00   189013.0   132905.0    0.35218
   7601.10    48.1193       2.00   190056.0   131892.0    0.36534
   7602.12    48.1124       2.00   189237.0   131208.0    0.36622
   7603.14    48.1056       2.00   190091.0   129333.0    0.38511
   7604.01    48.0997       2.00   188968.0   127621.0    0.39251
   7605.03    48.0928       2.00   189171.0   125434.0    0.41087
   7606.05    48.0860       2.00   189623.0   121275.0    0.44698
   7607.07    48.0791       2.00   190495.0   117101.0    0.48659
   7608.10    48.0723       2.00   190124.0   113325.0    0.51742
   7609.12    48.0654       2.00   189196.0   108780.0    0.55346
   7609.99    48.0595       2.00   190219.0   103938.0    0.60438
   7611.02    48.0526       2.00   189815.0    99936.0    0.64152
   7612.04    48.0458       2.00   190368.0    95524.0    0.68958
   7613.06    48.0389       2.00   190178.0    92764.0    0.71790
   7614.08    48.0321       2.00   190397.0    90912.0    0.73922
   7615.11    48.0252       2.00   189964.0    88928.0    0.75901
   7616.13    48.0183       2.00   189938.0    89698.0    0.75025
   7617.01    48.0125       2.00   190242.0    89811.0    0.75059
   7618.03    48.0056       2.00   191461.0    91183.0    0.74182
   7619.06    47.9987       2.00   190041.0    92247.0    0.72277
   7620.08    47.9919       2.00   190799.0    95346.0    0.69371
   7621.11    47.9850       2.00   190940.0    97869.0    0.66833
   7622.13    47.9782       2.00   190973.0   101018.0    0.63683
   7623.01    47.9723       2.00   189928.0   102696.0    0.61487
   7624.04    47.9654       2.00   190454.0   104634.0    0.59894
   7625.06    47.9586       1.00    95307.0    53415.0    0.57901
   7645.05    47.8254       1.00    95421.0    54154.0    0.56647
   7665.14    47.6922       1.00    96431.0    56656.0    0.53183
   7685.04    47.5611       1.00    95777.0    57457.0    0.51099
