 0102    Rigaku R-XAS Looper
Nd                23/11/2023 10:29 -
Comment    :  exafstest
Sample     :  test
Operator   :  exafs
core       :  Cu
edge       :  K
XG         :  15 kV    30 mA
Filament   :  LaB6
Target     :  Mo
Io Counter :  Ar-300
I Counter  :  SC
Attachment :  None
0
0
0
Crystal    :  Ge(220)   2d = 4.00081
Monochro   :  omega -0.207    tilt 0.052     z 0.3
Slits      :  DS =  4.00 mm     RS =  2.00 mm     HS = 10 mm
RX-78         Transmission        Repetition = 1
 
Block        Energy        Step/eV       Time/s
    1          6100          10.00            1
    2          6190           1.00            2
    3          6220          20.00            1
    4          6710           1.00            2
    5          6730          10.00            1
    6          6800           1.00            1
 
 Energy(eV)    Angle      time/s       Io          I
   6100.05    61.0625       1.00    38165.0    15572.0    0.89644
   6110.01    60.9523       1.00    38840.0    16041.0    0.88430
   6120.00    60.8422       1.00    38860.0    16247.0    0.87206
   6130.03    60.7322       1.00    39582.0    16750.0    0.85998
   6140.09    60.6223       1.00    40300.0    17170.0    0.85319
   6150.08    60.5134       1.00    40346.0    17446.0    0.83838
   6160.01    60.4057       1.00    40703.0    17806.0    0.82677
   6170.08    60.2969       1.00    41563.0    18224.0    0.82447
   6180.07    60.1893       1.00    42178.0    18710.0    0.81284
   6190.01    60.0827       2.00    84608.0    37698.0    0.80842
   6191.07    60.0714       2.00    85289.0    37877.0    0.81170
   6192.04    60.0610       2.00    85293.0    37830.0    0.81299
   6193.00    60.0507       2.00    85296.0    37819.0    0.81332
   6194.07    60.0393       2.00    85050.0    37379.0    0.82213
   6195.03    60.0290       2.00    85109.0    37835.0    0.81070
   6196.00    60.0186       2.00    85724.0    37592.0    0.82434
   6197.07    60.0072       2.00    85772.0    37439.0    0.82898
   6198.04    59.9969       2.00    85589.0    37335.0    0.82963
   6199.00    59.9866       2.00    85578.0    36789.0    0.84423
   6200.07    59.9752       2.00    86162.0    36012.0    0.87238
   6201.04    59.9649       2.00    85941.0    35732.0    0.87761
   6202.01    59.9545       2.00    85456.0    34966.0    0.89363
   6203.08    59.9432       2.00    86165.0    33875.0    0.93359
   6204.05    59.9328       2.00    85785.0    32346.0    0.97535
   6205.02    59.9225       2.00    85920.0    30843.0    1.02451
   6206.08    59.9111       2.00    86572.0    28281.0    1.11879
   6207.06    59.9008       2.00    86891.0    25578.0    1.22292
   6208.03    59.8905       2.00    86665.0    22463.0    1.35018
   6209.00    59.8801       2.00    85834.0    18782.0    1.51952
   6210.07    59.8688       2.00    86720.0    15277.0    1.73634
   6211.04    59.8584       2.00    86640.0    12695.0    1.92055
   6212.01    59.8481       2.00    87118.0    11716.0    2.00631
   6213.08    59.8367       2.00    86679.0    11278.0    2.03936
   6214.06    59.8264       2.00    87485.0    11944.0    1.99124
   6215.03    59.8161       2.00    86755.0    13532.0    1.85803
   6216.00    59.8058       2.00    87307.0    15412.0    1.73428
   6217.08    59.7944       2.00    87249.0    17777.0    1.59086
   6218.05    59.7841       2.00    87491.0    19715.0    1.49016
   6219.03    59.7738       2.00    88285.0    20808.0    1.44523
   6220.00    59.7634       1.00    43742.0    10861.0    1.39313
   6240.06    59.5519       1.00    44955.0    10739.0    1.43178
   6260.05    59.3426       1.00    45851.0    12641.0    1.28845
   6280.07    59.1346       1.00    46359.0    12702.0    1.29466
   6300.02    58.9288       1.00    47478.0    13130.0    1.28537
   6320.00    58.7243       1.00    48569.0    14145.0    1.23362
   6340.00    58.5210       1.00    49217.0    14456.0    1.22513
   6360.02    58.3190       1.00    50537.0    14761.0    1.23072
   6380.08    58.1181       1.00    51687.0    15669.0    1.19352
   6400.05    57.9195       1.00    56530.0    17544.0    1.17006
   6420.04    57.7222       1.00    52978.0    17122.0    1.12951
   6440.05    57.5260       1.00    54108.0    17603.0    1.12291
   6460.08    57.3310       1.00    54623.0    18261.0    1.09569
   6480.03    57.1383       1.00    54443.0    19004.0    1.05250
   6499.99    56.9467       1.00    56106.0    20054.0    1.02881
   6520.08    56.7553       1.00    57237.0    20931.0    1.00597
   6540.08    56.5662       1.00    59198.0    21732.0    1.00210
   6560.09    56.3782       1.00    59538.0    22136.0    0.98941
   6580.00    56.1924       1.00    60292.0    23265.0    0.95225
   6600.04    56.0067       1.00    61540.0    24364.0    0.92658
   6620.09    55.8223       1.00    62043.0    24930.0    0.91176
   6640.03    55.6400       1.00    63030.0    26005.0    0.88532
   6660.10    55.4579       1.00    64086.0    27067.0    0.86191
   6680.07    55.2779       1.00    64844.0    28215.0    0.83213
   6700.04    55.0991       1.00    65536.0    29207.0    0.80819
   6710.01    55.0103       2.00   132377.0    57898.0    0.82697
   6711.03    55.0012       2.00   132027.0    57603.0    0.82943
   6712.06    54.9921       2.00   132277.0    57652.0    0.83047
   6713.08    54.9830       2.00   132675.0    56632.0    0.85133
   6714.10    54.9740       2.00   132673.0    56153.0    0.85981
   6715.01    54.9659       2.00   132649.0    54834.0    0.88340
   6716.03    54.9568       2.00   132875.0    53351.0    0.91252
   6717.06    54.9477       2.00   133341.0    50715.0    0.96669
   6718.08    54.9386       2.00   133606.0    47461.0    1.03499
   6719.11    54.9296       2.00   133156.0    44127.0    1.10445
   6720.02    54.9215       2.00   133582.0    41104.0    1.17861
   6721.04    54.9124       2.00   132906.0    37638.0    1.26163
   6722.07    54.9033       2.00   133411.0    35078.0    1.33586
   6723.09    54.8942       2.00   133630.0    32951.0    1.40005
   6724.00    54.8862       2.00   133403.0    32785.0    1.40340
   6725.03    54.8771       2.00   134820.0    33360.0    1.39658
   6726.06    54.8680       2.00   133052.0    34348.0    1.35420
   6727.08    54.8589       2.00   134102.0    36011.0    1.31478
   6728.00    54.8509       2.00   133938.0    38678.0    1.24211
   6729.02    54.8418       2.00   133761.0    40404.0    1.19713
   6730.05    54.8327       1.00    67340.0    21240.0    1.15387
   6740.00    54.7450       1.00    67414.0    24820.0    0.99920
   6750.09    54.6563       1.00    67742.0    23176.0    1.07259
   6760.10    54.5686       1.00    68241.0    23278.0    1.07554
   6770.02    54.4820       1.00    68707.0    25147.0    1.00511
   6780.09    54.3944       1.00    69470.0    25908.0    0.98634
   6790.07    54.3079       1.00    69071.0    25461.0    0.99799
