 0102    Rigaku R-XAS Looper
Ta                23/11/2023 12:43 -
Comment    :  exafstest
Sample     :  test
Operator   :  exafs
core       :  Cu
edge       :  K
XG         :  20 kV    30 mA
Filament   :  LaB6
Target     :  Mo
Io Counter :  Ar-300
I Counter  :  SC
Attachment :  None
0
0
0
Crystal    :  Si(400)   2d = 2.71500
Monochro   :  omega -0.208    tilt 0.042     z 0.3
Slits      :  DS =  4.00 mm     RS =  2.00 mm     HS = 10 mm
RX-78         Transmission        Repetition = 1
 
Block        Energy        Step/eV       Time/s
    1          9800          10.00            1
    2          9860           1.00            2
    3          9900          80.00            1
    4         11110           1.00            2
    5         11150          10.00            1
    6         11200           1.00            1
 
 Energy(eV)    Angle      time/s       Io          I
   9800.30    55.5439       1.00    71638.0   219871.0   -1.12142
   9810.17    55.4832       1.00    74699.0   228365.0   -1.11748
   9820.23    55.4215       1.00    77137.0   232007.0   -1.10118
   9830.30    55.3598       1.00    73619.0   224965.0   -1.11704
   9840.23    55.2991       1.00    72754.0   222194.0   -1.11647
   9850.18    55.2385       1.00    72746.0   220477.0   -1.10882
   9860.32    55.1769       2.00   145010.0   426747.0   -1.07939
   9861.32    55.1708       2.00   146309.0   422278.0   -1.05994
   9862.31    55.1648       2.00   144713.0   418060.0   -1.06087
   9863.31    55.1587       2.00   145805.0   411842.0   -1.03837
   9864.31    55.1526       2.00   144894.0   404655.0   -1.02703
   9865.31    55.1466       2.00   146005.0   395602.0   -0.99677
   9866.31    55.1405       2.00   145304.0   384251.0   -0.97247
   9867.31    55.1345       2.00   145753.0   369678.0   -0.93072
   9868.31    55.1284       2.00   146242.0   353502.0   -0.88263
   9869.31    55.1223       2.00   145463.0   334303.0   -0.83213
   9870.31    55.1163       2.00   145980.0   313659.0   -0.76484
   9871.31    55.1102       2.00   145184.0   290061.0   -0.69209
   9872.31    55.1042       2.00   145865.0   264793.0   -0.59627
   9873.31    55.0981       2.00   145506.0   238613.0   -0.49463
   9874.31    55.0921       2.00   146139.0   213695.0   -0.37999
   9875.31    55.0860       2.00   145947.0   189578.0   -0.26156
   9876.31    55.0799       2.00   145560.0   167100.0   -0.13800
   9877.31    55.0739       2.00   145787.0   148419.0   -0.01789
   9878.31    55.0678       2.00   145768.0   132126.0    0.09826
   9879.32    55.0618       2.00   146257.0   120022.0    0.19769
   9880.32    55.0557       2.00   146314.0   111636.0    0.27051
   9881.32    55.0497       2.00   145951.0   106839.0    0.31195
   9882.32    55.0436       2.00   145705.0   106434.0    0.31406
   9883.33    55.0375       2.00   146635.0   108517.0    0.30104
   9884.16    55.0325       2.00   145729.0   110733.0    0.27463
   9885.16    55.0264       2.00   146430.0   116657.0    0.22731
   9886.17    55.0204       2.00   146164.0   122869.0    0.17361
   9887.17    55.0143       2.00   145825.0   129783.0    0.11654
   9888.17    55.0083       2.00   147043.0   136826.0    0.07202
   9889.18    55.0022       2.00   146684.0   143167.0    0.02427
   9890.18    54.9962       2.00   145797.0   149155.0   -0.02277
   9891.19    54.9901       2.00   147018.0   155304.0   -0.05483
   9892.19    54.9840       2.00   146587.0   160964.0   -0.09356
   9893.20    54.9780       2.00   146525.0   165053.0   -0.11907
   9894.20    54.9719       2.00   147691.0   168952.0   -0.13449
   9895.21    54.9659       2.00   146557.0   173452.0   -0.16849
   9896.21    54.9598       2.00   147018.0   177661.0   -0.18932
   9897.22    54.9538       2.00   146638.0   179752.0   -0.20361
   9898.22    54.9477       2.00   146655.0   182136.0   -0.21667
   9899.23    54.9417       2.00   147270.0   184233.0   -0.22393
   9900.23    54.9356       1.00    73767.0    93396.0   -0.23594
   9980.19    54.4589       1.00    76329.0   105855.0   -0.32702
  10060.24    53.9902       1.00    76101.0   107469.0   -0.34514
  10140.17    53.5305       1.00    78744.0   117837.0   -0.40310
  10220.31    53.0777       1.00    79653.0   125787.0   -0.45691
  10300.28    52.6339       1.00    80537.0   132722.0   -0.49954
  10380.21    52.1978       1.00    82188.0   140884.0   -0.53893
  10460.28    51.7685       1.00    83564.0   149958.0   -0.58474
  10540.25    51.3470       1.00    84969.0   160237.0   -0.63437
  10620.31    50.9322       1.00    86220.0   168717.0   -0.67132
  10700.21    50.5250       1.00    86852.0   177758.0   -0.71622
  10780.33    50.1234       1.00    88517.0   188453.0   -0.75565
  10860.25    49.7294       1.00    89129.0   197493.0   -0.79562
  10940.34    49.3409       1.00    90842.0   209066.0   -0.83353
  11020.38    48.9590       1.00    91044.0   217615.0   -0.87138
  11100.32    48.5835       1.00    92132.0   225701.0   -0.89599
  11110.24    48.5373       2.00   184603.0   446799.0   -0.88390
  11111.30    48.5324       2.00   184487.0   443393.0   -0.87688
  11112.35    48.5275       2.00   183997.0   439752.0   -0.87129
  11113.41    48.5226       2.00   183802.0   435776.0   -0.86327
  11114.25    48.5187       2.00   184453.0   432070.0   -0.85119
  11115.31    48.5137       2.00   184924.0   425378.0   -0.83303
  11116.37    48.5088       2.00   184406.0   418071.0   -0.81851
  11117.21    48.5049       2.00   183777.0   411967.0   -0.80722
  11118.27    48.5000       2.00   185209.0   402253.0   -0.77560
  11119.33    48.4951       2.00   184282.0   391769.0   -0.75421
  11120.39    48.4902       2.00   184672.0   381345.0   -0.72512
  11121.23    48.4863       2.00   185005.0   371317.0   -0.69667
  11122.29    48.4813       2.00   183990.0   360205.0   -0.67179
  11123.35    48.4764       2.00   184515.0   346640.0   -0.63056
  11124.41    48.4715       2.00   184210.0   334608.0   -0.59688
  11125.25    48.4676       2.00   184604.0   324975.0   -0.56554
  11126.31    48.4627       2.00   184191.0   312217.0   -0.52773
  11127.37    48.4578       2.00   184561.0   301777.0   -0.49171
  11128.22    48.4539       2.00   184880.0   293486.0   -0.46212
  11129.28    48.4489       2.00   184271.0   285342.0   -0.43728
  11130.34    48.4440       2.00   184342.0   278231.0   -0.41166
  11131.40    48.4391       2.00   184385.0   271828.0   -0.38814
  11132.25    48.4352       2.00   185061.0   268580.0   -0.37246
  11133.31    48.4303       2.00   183600.0   265287.0   -0.36805
  11134.37    48.4254       2.00   185549.0   262951.0   -0.34865
  11135.22    48.4215       2.00   185625.0   263134.0   -0.34893
  11136.28    48.4166       2.00   184581.0   264083.0   -0.35818
  11137.34    48.4116       2.00   184850.0   265449.0   -0.36188
  11138.40    48.4067       2.00   184601.0   268353.0   -0.37411
  11139.25    48.4028       2.00   183658.0   272844.0   -0.39582
  11140.31    48.3979       2.00   184967.0   275476.0   -0.39832
  11141.37    48.3930       2.00   185213.0   280107.0   -0.41367
  11142.22    48.3891       2.00   184426.0   284204.0   -0.43244
  11143.28    48.3842       2.00   184411.0   288998.0   -0.44925
  11144.35    48.3793       2.00   184946.0   293068.0   -0.46034
  11145.41    48.3743       2.00   185447.0   296665.0   -0.46983
  11146.26    48.3704       2.00   184799.0   299542.0   -0.48299
  11147.32    48.3655       2.00   183773.0   302409.0   -0.49808
  11148.38    48.3606       2.00   184627.0   305761.0   -0.50447
  11149.23    48.3567       2.00   185443.0   307008.0   -0.50413
  11150.30    48.3518       1.00    92223.0   154760.0   -0.51767
  11160.30    48.3057       1.00    92645.0   161613.0   -0.55643
  11170.33    48.2595       1.00    92409.0   163788.0   -0.57235
  11180.37    48.2134       1.00    92853.0   164740.0   -0.57335
  11190.22    48.1683       1.00    93202.0   164538.0   -0.56837
